2theta chi X Y I
56.668733   -16.314383   1302.930000   1700.930000   39422.520000
78.332654   24.496879   661.940000   1312.190000   20765.260000
59.669059   12.966883   856.180000   1630.160000   17009.390000
69.739848   0.615057   1043.000000   1432.400000   16609.350000
48.080143   15.279010   820.820000   1911.190000   10848.190000
75.950714   14.301463   833.800000   1338.390000   10813.110000
73.502462   7.929922   932.850000   1372.900000   10803.230000
85.496751   -15.860495   1294.610000   1186.060000   10539.880000
71.064141   -32.911016   1605.520000   1464.270000   7768.810000
58.660885   -5.216235   1130.820000   1638.700000   7433.040000
92.718897   0.222442   1047.680000   1076.090000   7414.030000
100.857837   22.861611   689.080000   939.490000   7265.040000
55.741716   -15.844832   1295.390000   1720.300000   6487.360000
67.223140   -3.361622   1102.530000   1476.120000   6477.660000
84.876149   -3.797639   1108.220000   1193.510000   6331.350000
105.875730   -5.224800   1128.760000   871.570000   6071.460000
73.733802   20.876041   725.860000   1384.900000   5930.040000
78.893154   34.905940   454.880000   1323.520000   5860.240000
115.644778   -15.104337   1281.450000   689.090000   5730.570000
79.497881   -15.955660   1296.330000   1280.940000   5492.410000
95.583969   -15.648895   1290.890000   1028.970000   5421.380000
55.753833   30.881900   543.080000   1795.270000   5399.150000
101.865021   6.912054   946.610000   935.660000   5396.200000
117.848191   6.018517   959.110000   660.900000   5361.700000
93.964079   -31.718609   1580.470000   1045.220000   5302.670000
80.655617   -24.731872   1445.820000   1270.500000   4960.170000
50.912302   -26.729564   1483.140000   1890.960000   4940.380000
94.893420   13.410427   846.600000   1042.020000   4771.950000
91.368120   -11.519073   1225.640000   1095.310000   4709.540000
82.329188   11.288310   880.680000   1234.880000   4665.680000
68.234007   -28.979431   1525.740000   1505.280000   4639.150000
50.827405   9.598537   909.190000   1822.210000   4573.110000
74.568922   -8.580200   1180.980000   1355.110000   4450.170000
82.081551   31.048888   536.380000   1257.400000   4374.800000
103.685536   -15.470495   1287.760000   899.320000   4343.870000
57.728234   2.895308   1009.730000   1656.820000   4268.680000
127.173193   -14.627036   1273.290000   442.270000   4266.570000
115.015404   21.382034   713.580000   687.630000   3985.520000
78.230564   12.585411   860.720000   1300.050000   3930.450000
86.402676   -3.523623   1104.040000   1170.520000   3891.420000
75.370341   -40.157846   1773.620000   1406.440000   3854.350000
75.703510   -12.721728   1244.990000   1339.600000   3774.930000
54.388698   -20.406726   1370.760000   1767.850000   3758.510000
55.464610   -3.506118   1105.380000   1705.180000   3689.630000
66.198298   -34.653666   1643.160000   1572.900000   3678.890000
82.490850   13.668479   843.370000   1233.560000   3559.790000
75.786459   -20.570480   1372.910000   1347.120000   3479.270000
58.997447   -0.822558   1065.090000   1629.980000   3405.800000
107.711444   -0.124346   1052.100000   842.810000   3404.680000
75.783759   -16.549699   1306.070000   1342.000000   3384.770000
83.072067   -4.261122   1115.260000   1220.850000   3364.820000
102.521426   -2.456183   1087.290000   926.050000   3291.950000
55.790303   25.668132   643.130000   1761.820000   3244.910000
56.540988   -0.486102   1060.240000   1680.990000   3210.110000
78.261039   41.643364   291.360000   1357.110000   3204.370000
110.068354   14.987838   820.360000   793.020000   3195.960000
89.853930   7.394197   940.000000   1119.330000   3127.030000
74.336197   -3.991269   1111.610000   1356.990000   3046.580000
51.167429   8.473032   926.330000   1811.520000   3028.580000
103.471394   -9.245265   1190.030000   908.190000   2933.590000
97.721876   33.253165   488.650000   979.630000   2925.210000
76.935936   6.699148   951.310000   1316.980000   2912.780000
87.385275   -28.194309   1510.300000   1159.620000   2896.550000
91.213778   14.028518   837.060000   1098.760000   2829.120000
75.656979   -29.845558   1542.690000   1367.280000   2822.400000
105.477976   32.577820   502.080000   836.670000   2799.200000
84.727856   -0.491919   1058.750000   1195.740000   2752.180000
98.562700   14.351871   831.400000   984.270000   2703.640000
64.245384   11.308004   881.660000   1537.720000   2699.280000
107.862261   8.410452   923.390000   837.730000   2681.620000
51.363766   -18.646733   1341.360000   1835.450000   2663.480000
71.832088   33.963786   476.430000   1456.900000   2662.550000
88.046491   -4.452710   1117.920000   1145.840000   2553.900000
83.401971   -23.392611   1421.770000   1223.420000   2538.030000
60.106301   -26.705986   1482.500000   1664.830000   2509.250000
83.223000   28.712304   582.680000   1234.280000   2499.370000
127.736240   5.245975   970.010000   448.920000   2498.350000
106.526070   -0.101377   1051.820000   862.270000   2478.900000
122.108509   35.923986   426.110000   452.660000   2460.510000
60.275434   9.750986   905.990000   1612.060000   2440.800000
78.264820   -46.533816   1954.290000   1372.050000   2435.010000
74.121054   -31.705063   1580.310000   1400.940000   2434.390000
65.885207   2.412010   1016.400000   1499.790000   2430.950000
57.780255   0.276475   1048.790000   1654.930000   2428.220000
58.153592   -9.795758   1200.340000   1654.530000   2428.020000
66.538462   30.852956   542.160000   1550.400000   2416.530000
77.153725   -2.412029   1087.820000   1311.920000   2353.700000
71.532775   -44.270795   1885.540000   1512.590000   2339.100000
99.241366   47.096749   127.840000   914.860000   2310.840000
77.803249   -14.513719   1273.250000   1307.060000   2291.460000
55.180816   16.447753   801.200000   1736.560000   2278.660000
89.787863   -29.553601   1536.770000   1118.810000   2277.740000
65.057888   13.801047   842.580000   1526.690000   2257.490000
98.917645   -17.960719   1328.530000   974.460000   2242.870000
103.617289   -38.099074   1722.800000   850.510000   2239.080000
62.053076   11.838492   873.600000   1580.410000   2238.060000
119.486338   -36.268541   1679.690000   511.980000   2226.570000
54.456123   26.398196   629.870000   1798.710000   2221.670000
74.651539   27.589962   605.110000   1383.090000   2195.030000
57.961286   18.900341   760.680000   1682.480000   2194.670000
70.198241   4.399144   986.380000   1425.740000   2186.230000
71.711355   -30.494169   1555.680000   1443.010000   2181.320000
61.687283   8.734955   921.420000   1582.810000   2143.210000
82.016124   24.227334   666.450000   1249.660000   2141.270000
64.284480   -29.801056   1541.930000   1589.240000   2121.640000
108.896693   -30.665297   1558.820000   773.590000   2116.210000
57.304944   26.001431   636.810000   1727.710000   2107.320000
70.555136   12.409171   864.030000   1426.450000   2073.440000
117.914032   -0.454210   1056.450000   661.820000   2073.150000
87.521281   -6.885769   1154.670000   1153.760000   2027.810000
65.748635   -2.913911   1095.910000   1502.130000   2022.230000
61.759580   -11.513097   1226.680000   1584.430000   2021.780000
59.919010   26.240156   632.070000   1669.550000   2013.720000
91.667747   -7.549976   1164.590000   1091.230000   2009.780000
64.750869   -8.261146   1176.550000   1523.590000   2004.990000
100.667578   -22.828732   1411.450000   940.360000   2001.760000
100.136757   -3.648901   1105.300000   963.010000   1999.840000
94.522880   23.399125   680.130000   1044.130000   1984.270000
61.558788   -25.369555   1457.790000   1627.370000   1973.590000
59.094315   8.697430   922.200000   1634.370000   1957.220000
108.289959   13.477545   844.580000   825.860000   1956.020000
95.097016   33.909858   474.800000   1026.560000   1949.230000
83.292937   -17.611752   1323.210000   1221.480000   1938.600000
97.130207   -45.016701   1908.340000   962.250000   1926.960000
131.077728   18.815292   755.420000   325.520000   1910.820000
70.602524   18.564483   765.050000   1435.270000   1910.800000
85.289540   9.108130   914.120000   1188.660000   1902.800000
94.078338   -13.245131   1252.600000   1053.340000   1863.030000
90.351519   5.143259   974.030000   1111.740000   1859.500000
89.405616   23.300305   682.330000   1127.650000   1848.540000
87.118514   -9.997638   1202.230000   1160.030000   1840.350000
88.528640   15.556758   812.810000   1140.380000   1836.320000
74.180145   -18.182313   1332.880000   1370.910000   1815.830000
134.521876   -14.199090   1266.030000   242.960000   1797.540000
64.741572   18.204765   771.530000   1542.070000   1794.680000
69.503926   -18.871508   1344.460000   1453.510000   1787.760000
71.917697   16.311295   801.870000   1408.490000   1784.450000
80.739931   -6.932613   1155.660000   1256.980000   1775.540000
106.359655   38.644979   364.030000   796.530000   1771.990000
65.487297   -5.846716   1139.940000   1508.210000   1751.160000
70.221255   10.503082   893.660000   1429.980000   1748.710000
60.271228   20.353193   736.050000   1637.960000   1748.000000
73.012701   0.365079   1046.550000   1378.050000   1738.700000
46.639137   11.771684   876.180000   1939.760000   1711.340000
85.512401   4.086795   990.190000   1184.330000   1710.200000
84.959720   29.461443   567.850000   1205.070000   1708.440000
79.320099   24.934040   653.940000   1296.020000   1692.110000
95.146434   -23.358502   1420.930000   1031.480000   1689.330000
110.287525   -17.102940   1314.070000   784.020000   1687.850000
96.252260   2.007095   1020.800000   1022.920000   1662.080000
66.376967   38.466043   374.080000   1596.150000   1652.810000
108.197097   17.715646   776.120000   821.610000   1646.130000
80.786904   -21.355324   1386.230000   1264.700000   1642.540000
63.061631   -30.414741   1554.170000   1618.390000   1639.410000
74.538773   -11.821151   1230.950000   1357.880000   1621.090000
71.168420   -4.460832   1118.810000   1409.050000   1620.980000
107.303109   -40.456098   1781.780000   763.010000   1607.460000
99.789286   25.911648   634.120000   953.690000   1598.600000
60.126770   33.136393   495.790000   1704.190000   1581.070000
69.479186   -15.751480   1293.360000   1448.440000   1567.360000
66.316241   -26.546060   1479.400000   1534.330000   1565.820000
63.725549   -4.643319   1121.930000   1539.750000   1546.100000
47.752663   17.763410   780.680000   1930.800000   1541.480000
63.872798   -34.124210   1631.570000   1620.890000   1535.910000
77.245379   26.245839   630.070000   1334.050000   1499.510000
127.763019   -8.646259   1179.650000   442.710000   1489.630000
63.097477   -20.607709   1373.890000   1578.780000   1489.440000
91.653809   -39.102155   1747.250000   1082.600000   1484.160000
99.807041   31.183324   531.710000   945.250000   1481.740000
83.303448   -7.955026   1171.090000   1217.850000   1480.780000
111.876142   -5.644246   1134.810000   770.250000   1480.400000
64.208316   -0.639076   1062.030000   1529.690000   1472.450000
67.344562   34.188978   472.140000   1549.810000   1466.770000
119.068372   -29.687703   1539.110000   565.440000   1459.060000
104.298124   13.601066   842.920000   892.580000   1458.530000
53.733282   -8.027966   1173.590000   1748.730000   1456.140000
84.906502   -8.776737   1183.570000   1193.540000   1442.250000
101.565516   -23.424440   1421.970000   924.320000   1441.050000
88.857214   5.798485   964.230000   1134.220000   1439.410000
57.447038   23.949224   673.950000   1714.280000   1436.810000
79.310954   0.724527   1040.850000   1278.330000   1415.240000
109.410342   4.067169   989.140000   813.900000   1414.370000
121.999108   15.856837   805.270000   559.490000   1410.950000
77.927044   -1.300112   1071.160000   1299.750000   1391.650000
96.642632   3.639680   996.300000   1016.940000   1381.450000
121.189038   10.131709   895.900000   589.020000   1377.110000
66.045903   6.315412   957.810000   1499.090000   1361.000000
115.239400   -10.868189   1214.600000   704.150000   1360.300000
110.680007   31.683259   520.140000   737.780000   1353.770000
88.093422   29.426765   568.210000   1151.080000   1351.090000
59.841156   -15.891443   1295.970000   1631.910000   1340.200000
105.155839   9.572872   905.730000   881.660000   1339.020000
134.360077   4.530351   980.180000   272.840000   1336.800000
102.974138   -19.620546   1356.130000   906.020000   1333.640000
55.924778   -10.224721   1207.050000   1703.020000   1331.270000
101.065383   -27.488929   1496.630000   926.280000   1330.880000
55.396103   5.817786   966.110000   1709.080000   1320.980000
85.867258   13.686579   842.850000   1181.120000   1312.620000
92.175086   18.407306   765.940000   1083.410000   1306.250000
61.852683   -6.027189   1142.850000   1576.060000   1293.720000
70.583844   -10.963430   1217.780000   1423.190000   1290.080000
94.480258   40.107792   329.080000   1031.350000   1289.120000
76.809377   17.146053   787.900000   1327.460000   1288.210000
105.472706   21.068441   719.890000   863.420000   1287.410000
63.445776   19.484098   750.370000   1570.650000   1284.430000
57.123893   5.779191   966.550000   1671.730000   1277.360000
81.364721   7.752345   935.060000   1248.320000   1266.530000
89.846085   9.902643   901.630000   1119.590000   1262.090000
87.278051   6.597347   952.240000   1158.070000   1251.310000
63.850006   -22.181190   1400.940000   1568.590000   1242.820000
91.412718   -42.420090   1833.790000   1085.570000   1238.090000
87.144850   -16.796505   1309.750000   1160.520000   1236.210000
113.356042   -33.197238   1611.470000   671.830000   1227.250000
73.118257   17.479879   782.730000   1389.740000   1223.070000
125.328152   -4.125703   1111.120000   505.850000   1213.200000
113.982125   44.814571   195.860000   580.860000   1212.530000
89.793790   -42.126529   1825.740000   1118.370000   1202.150000
106.250332   22.376821   697.110000   847.540000   1196.260000
60.234506   21.244373   720.870000   1641.860000   1190.840000
90.939678   -22.668620   1408.840000   1100.360000   1185.050000
87.592971   -13.935058   1263.730000   1153.150000   1183.790000
57.207879   14.057376   839.230000   1684.500000   1174.570000
137.384257   -7.852084   1166.770000   171.700000   1174.230000
66.738219   -11.051967   1219.310000   1490.570000   1172.500000
123.719287   -6.372367   1145.200000   539.420000   1165.900000
94.435378   -25.324725   1456.370000   1041.900000   1165.120000
114.723768   -36.750966   1690.860000   621.100000   1158.770000
81.822428   34.371616   466.300000   1267.680000   1153.920000
61.899687   -31.791698   1582.180000   1651.460000   1153.470000
139.725817   16.611601   790.620000   56.480000   1151.810000
55.840836   -22.849431   1412.840000   1744.030000   1150.370000
78.086869   6.469823   954.710000   1298.750000   1149.550000
119.574941   -10.055125   1201.800000   621.260000   1144.130000
67.206306   16.823413   793.950000   1492.840000   1138.880000
72.975869   -13.377188   1255.400000   1385.250000   1134.220000
102.685286   10.688620   888.660000   920.890000   1133.420000
117.247671   11.812492   870.080000   665.600000   1132.620000
114.879639   12.256864   863.310000   709.990000   1131.840000
124.047602   0.427372   1042.820000   536.150000   1130.920000
72.145469   -4.001564   1111.870000   1392.700000   1130.130000
123.938160   -14.777085   1275.850000   517.950000   1127.010000
72.280778   43.974058   227.800000   1498.930000   1123.770000
78.918499   31.951084   518.210000   1316.000000   1120.940000
103.716798   18.490881   763.640000   897.000000   1118.800000
57.950776   17.923823   776.830000   1679.470000   1115.600000
124.449167   20.055394   735.310000   490.150000   1115.230000
114.290644   -21.003169   1379.360000   700.660000   1115.200000
94.160020   1.610212   1026.850000   1054.500000   1112.920000
70.913271   -29.052890   1527.140000   1453.580000   1110.570000
65.365241   8.805162   920.070000   1513.760000   1110.210000
81.636481   5.289969   972.310000   1243.390000   1101.620000
75.988537   -9.203758   1190.460000   1332.560000   1094.300000
83.287359   42.057523   279.440000   1254.970000   1083.770000
135.841199   -6.599027   1147.780000   224.120000   1081.800000
76.376673   34.012878   474.790000   1368.730000   1081.450000
68.227017   -0.393212   1058.130000   1458.200000   1077.230000
63.493345   -16.314795   1302.670000   1559.910000   1069.480000
107.127525   -15.390624   1286.360000   841.810000   1064.170000
114.642898   -1.241776   1068.450000   722.840000   1054.770000
95.833521   -13.888300   1262.720000   1025.880000   1054.690000
117.740291   -19.727520   1357.510000   635.950000   1048.970000
102.189764   20.428647   731.130000   920.160000   1042.880000
53.895264   -14.070187   1267.140000   1757.740000   1041.980000
93.206356   -6.205362   1144.130000   1068.180000   1041.610000
99.020072   12.244786   864.660000   978.140000   1040.480000
82.354778   -29.872521   1543.160000   1247.630000   1040.120000
89.585593   17.318826   784.100000   1124.130000   1039.740000
63.334002   0.267669   1048.560000   1545.880000   1035.150000
97.502734   5.712240   965.040000   1003.610000   1030.320000
80.380566   41.796081   286.940000   1313.780000   1021.170000
71.441680   3.652589   997.500000   1404.610000   1020.420000
129.273852   -34.636597   1642.800000   259.510000   1018.580000
87.211696   10.559427   891.660000   1159.710000   1018.010000
69.495793   30.933192   540.170000   1491.080000   1017.950000
131.765347   33.450199   479.380000   197.230000   1017.040000
84.890715   19.243299   752.560000   1198.820000   1013.520000
91.053610   16.424530   798.590000   1101.170000   1011.890000
130.071223   16.659474   791.280000   362.380000   1011.420000
70.437512   20.299936   735.960000   1441.720000   1009.950000
65.438063   -23.707648   1427.750000   1542.030000   1005.510000
121.143267   -26.930736   1485.730000   532.940000   999.740000
92.940448   2.566160   1012.600000   1072.840000   996.290000
128.028214   16.314377   797.170000   416.920000   993.400000
107.711727   6.016245   959.830000   841.590000   992.130000
73.427165   41.003748   309.030000   1456.320000   988.560000
76.439272   7.964905   932.130000   1325.510000   982.950000
48.755265   -20.160895   1366.820000   1912.170000   982.460000
91.213258   10.986467   884.790000   1098.830000   980.940000
111.661982   -22.535916   1406.050000   746.530000   974.350000
66.393208   -9.534064   1195.930000   1495.040000   969.890000
105.782086   -36.014001   1673.780000   814.940000   968.230000
101.186653   -8.182713   1173.850000   945.070000   966.140000
95.431079   -34.855950   1647.650000   1015.510000   963.720000
74.353753   35.239231   448.040000   1411.970000   961.680000
85.578942   -12.549311   1241.940000   1183.950000   956.330000
86.791716   23.071150   686.610000   1170.130000   952.150000
89.713676   2.696965   1010.810000   1121.180000   950.620000
66.445129   -13.729062   1261.200000   1499.620000   949.910000
98.094432   10.956456   884.810000   993.150000   949.150000
105.344045   -18.594737   1338.870000   867.510000   947.290000
86.329188   -32.989039   1607.120000   1180.420000   945.670000
125.631103   -10.135862   1202.730000   490.460000   943.820000
96.314435   8.112785   928.670000   1021.380000   939.990000
87.860471   -15.590898   1290.190000   1149.190000   937.630000
87.941950   -31.824249   1582.690000   1151.230000   936.350000
69.326122   -7.037610   1157.750000   1441.470000   931.370000
106.167022   -12.038291   1233.210000   861.920000   924.040000
59.623894   -21.046195   1381.480000   1651.970000   923.970000
81.619553   -15.018508   1281.190000   1246.550000   923.770000
61.692205   -37.777946   1714.720000   1696.350000   922.370000
87.618014   -1.868348   1079.190000   1152.310000   919.570000
59.348282   -25.746359   1464.740000   1677.150000   919.490000
117.137261   28.166791   589.620000   618.930000   910.960000
74.131162   0.912294   1038.320000   1359.980000   909.050000
91.723027   45.741910   171.890000   1082.730000   905.800000
81.918829   -5.874870   1139.610000   1238.640000   903.480000
94.814950   32.539600   504.130000   1032.940000   888.130000
63.428184   8.333219   927.410000   1549.070000   879.490000
81.484728   -27.443196   1496.030000   1259.680000   878.200000
89.158999   41.411363   295.880000   1136.010000   878.050000
81.086194   -43.428627   1861.650000   1298.880000   876.100000
122.301923   31.857820   514.900000   478.720000   872.720000
76.794995   31.816954   521.230000   1354.700000   871.540000
79.972647   36.017960   429.730000   1305.850000   870.550000
108.095719   -20.150946   1364.970000   817.110000   868.980000
90.826940   -4.488724   1118.340000   1104.140000   865.630000
124.218696   14.867045   821.020000   512.830000   864.430000
56.226078   -14.019742   1266.230000   1704.510000   864.300000
63.596810   -8.379589   1178.410000   1545.130000   859.260000
104.588320   -3.877043   1108.520000   892.870000   855.490000
101.558264   -19.575619   1355.410000   929.660000   847.310000
118.075143   30.282023   547.790000   587.820000   840.970000
82.701598   12.595200   860.260000   1229.720000   835.200000
58.927206   -19.765693   1359.770000   1662.500000   829.400000
98.518589   -29.806267   1541.690000   967.180000   829.350000
122.576350   8.540166   920.300000   562.090000   827.700000
109.409239   10.284757   894.450000   810.050000   825.850000
87.748037   1.619496   1027.040000   1150.530000   825.610000
120.428387   -13.510764   1255.820000   597.200000   825.390000
81.457424   3.415753   1000.480000   1245.720000   825.090000
127.899080   15.198010   815.290000   423.960000   823.490000
73.971997   -22.840423   1412.220000   1382.160000   820.390000
82.700007   -25.981226   1468.640000   1237.360000   819.840000
116.827798   37.637261   386.850000   570.270000   817.010000
100.166530   13.060503   851.760000   959.610000   816.960000
95.754968   20.380196   732.490000   1025.680000   813.070000
102.718657   -6.145618   1142.820000   921.820000   812.580000
83.032925   18.088800   771.920000   1227.720000   812.520000
53.280441   -10.404949   1209.970000   1763.440000   809.830000
99.766610   7.402053   939.290000   968.340000   808.990000
96.275546   -23.550539   1424.320000   1012.730000   807.720000
91.447887   22.808335   690.840000   1094.460000   807.650000
103.221632   6.570517   951.710000   914.300000   804.710000
98.172482   24.853798   653.670000   982.410000   804.600000
67.421842   26.721059   622.250000   1516.010000   804.300000
107.292382   -3.653582   1105.030000   849.000000   803.280000
51.829653   -16.622127   1308.130000   1815.810000   798.760000
89.671393   -24.893522   1448.590000   1120.870000   798.230000
89.821386   -15.796721   1293.450000   1118.740000   796.580000
70.903869   6.585957   953.400000   1415.080000   795.680000
102.629342   21.867219   706.330000   910.870000   795.270000
114.918144   -7.995750   1170.390000   713.660000   792.130000
90.947432   19.849405   741.880000   1102.720000   789.390000
110.074960   -43.584037   1866.840000   680.920000   778.920000
88.266284   -5.856263   1139.060000   1142.530000   777.500000
96.001799   42.098222   276.380000   997.870000   777.040000
105.653208   -2.163637   1082.750000   876.170000   769.110000
81.314699   -20.462275   1370.930000   1255.250000   768.950000
105.567502   6.941726   945.930000   876.410000   762.920000
123.844641   -19.256859   1349.360000   505.330000   759.810000
132.545844   -21.991389   1395.870000   263.820000   758.930000
96.691044   -24.605388   1443.240000   1004.890000   754.840000
97.435665   -10.071873   1202.990000   1002.660000   753.770000
72.262562   -7.208685   1160.210000   1392.120000   745.150000
88.912863   -27.623733   1499.360000   1133.630000   743.130000
95.946359   -17.244918   1316.830000   1022.430000   741.750000
71.387018   36.258848   425.370000   1475.840000   741.660000
77.498024   35.631911   438.810000   1352.130000   740.530000
80.374076   20.931489   724.340000   1273.230000   740.090000
70.193826   27.185197   613.240000   1464.300000   739.540000
93.700026   4.021824   990.720000   1061.420000   736.020000
117.130331   -17.850666   1326.150000   653.610000   735.170000
75.679532   -37.393929   1705.720000   1389.390000   734.690000
112.026648   31.314914   527.570000   711.970000   730.600000
83.982040   -27.854653   1503.830000   1217.340000   726.070000
96.617341   -34.099999   1631.010000   994.780000   724.760000
52.695853   -27.851318   1504.250000   1850.310000   722.090000
138.309965   -2.671208   1088.130000   148.750000   719.000000
104.073382   4.698692   979.950000   901.300000   717.690000
91.508576   4.212764   987.970000   1094.350000   714.840000
110.486749   -1.625297   1074.430000   795.980000   713.140000
94.379944   -5.936834   1140.020000   1050.490000   711.270000
65.692569   -25.041172   1451.720000   1541.420000   711.240000
93.303975   23.025616   686.850000   1064.220000   709.160000
67.868683   15.611643   813.490000   1478.490000   709.150000
100.940330   8.680184   919.710000   949.560000   708.810000
111.363039   -25.274854   1455.150000   744.180000   708.510000
104.855390   -36.145465   1676.790000   832.930000   707.120000
71.870687   -21.255569   1384.730000   1416.060000   705.420000
71.160863   -32.054989   1587.570000   1459.130000   705.180000
104.095931   -37.431907   1706.820000   843.350000   702.960000
67.613917   24.149398   669.230000   1503.800000   702.380000
105.317610   2.449494   1013.680000   881.770000   702.220000
99.837822   -44.859447   1903.730000   904.180000   701.000000
77.430262   2.672663   1011.830000   1307.870000   698.990000
83.937309   -35.099003   1653.050000   1225.900000   698.110000
77.503043   9.138769   914.140000   1309.280000   697.490000
84.974119   16.737853   793.940000   1196.230000   697.100000
69.336513   27.819407   601.320000   1482.730000   695.150000
64.860001   0.679117   1042.330000   1517.860000   694.110000
93.831062   -39.245820   1750.850000   1040.370000   690.870000
123.116107   -37.566076   1710.180000   406.980000   690.100000
109.760847   0.806379   1038.050000   808.550000   690.060000
83.295021   15.989958   806.200000   1222.250000   689.620000
92.148350   26.495913   623.990000   1082.260000   685.640000
84.975735   22.555164   695.840000   1199.430000   685.390000
119.873387   30.224957   548.690000   547.220000   685.070000
139.578432   -13.834757   1259.860000   74.400000   680.890000
47.105288   4.227860   990.720000   1911.350000   680.150000
99.247997   -47.782774   1995.540000   905.870000   679.260000
118.801866   -22.000815   1396.500000   606.300000   677.350000
91.361936   1.151200   1033.860000   1096.450000   674.950000
100.770313   43.569309   234.640000   894.300000   673.590000
62.453912   -26.090663   1471.020000   1611.430000   671.180000
87.415956   -21.246295   1384.200000   1157.130000   669.460000
63.621264   -31.452817   1575.200000   1611.590000   669.300000
119.191517   1.631525   1025.100000   636.860000   668.600000
58.683235   11.892560   873.050000   1648.300000   668.520000
126.325166   12.211938   862.980000   470.740000   661.930000
93.087127   30.819154   539.860000   1064.640000   661.280000
72.984631   -35.911927   1671.340000   1437.760000   659.350000
108.435295   -40.147100   1773.840000   740.100000   658.390000
75.498617   0.860483   1039.020000   1338.080000   654.830000
69.355310   -14.279174   1269.810000   1448.410000   654.680000
131.059637   -7.163995   1156.760000   361.270000   653.170000
73.927386   26.295015   629.490000   1392.980000   651.760000
72.033612   -2.959257   1096.260000   1394.290000   650.940000
82.783942   -14.265802   1269.140000   1227.870000   650.520000
78.750412   20.876962   725.410000   1299.980000   650.430000
97.426716   27.880895   597.290000   991.860000   648.040000
122.134296   7.087342   942.540000   573.340000   646.870000
73.124802   -40.804530   1790.260000   1456.920000   646.290000
120.501615   -6.135873   1141.800000   607.570000   644.670000
90.909660   -47.672646   1991.530000   1093.470000   639.080000
111.579360   4.737163   978.910000   776.440000   636.180000
97.962663   -19.912987   1361.200000   988.230000   632.030000
91.311115   8.937166   916.370000   1097.360000   632.000000
111.393293   28.210817   589.460000   736.700000   631.210000
75.499259   -6.470639   1148.890000   1339.100000   630.780000
118.314954   2.642153   1009.990000   653.750000   626.450000
127.814747   -9.984405   1200.260000   438.780000   625.180000
122.045037   0.704973   1038.800000   579.020000   623.150000
134.741825   11.454492   873.890000   247.080000   620.770000
96.068328   -10.637301   1211.780000   1023.540000   620.320000
133.950871   8.433579   920.800000   278.570000   616.660000
123.885779   40.254927   320.400000   362.250000   616.570000
70.494332   -7.514514   1164.930000   1421.890000   615.720000
104.947622   -44.144404   1882.840000   794.810000   613.420000
74.121524   -13.936359   1264.200000   1366.730000   613.280000
48.286428   -19.031870   1347.900000   1919.780000   612.950000
52.571660   22.442059   701.110000   1824.340000   612.760000
74.753822   33.812074   479.340000   1399.170000   612.500000
114.733119   3.378052   999.170000   720.830000   611.070000
75.373594   21.075639   722.300000   1357.070000   607.830000
120.351252   16.812081   789.870000   592.170000   607.470000
65.006447   2.517437   1014.880000   1515.650000   604.350000
100.451435   -37.689992   1712.940000   914.710000   602.550000
105.540251   35.640331   435.080000   825.240000   602.040000
113.074830   -0.522944   1057.770000   751.100000   598.950000
97.650470   -4.514668   1118.430000   1001.060000   598.240000
88.939317   -19.992493   1362.770000   1132.610000   595.940000
96.604699   25.414456   643.580000   1008.240000   595.660000
107.980101   20.421946   730.740000   820.720000   595.610000
120.496714   8.808293   916.360000   605.280000   594.470000
96.752317   -2.243611   1084.380000   1015.110000   594.080000
107.868796   19.079219   753.460000   825.090000   592.910000
86.081795   36.119651   426.630000   1191.410000   592.860000
47.954787   -4.136395   1115.350000   1887.650000   591.760000
94.545859   37.778575   386.700000   1032.750000   588.750000
89.502863   -8.343535   1176.770000   1123.860000   588.380000
59.737380   35.582921   442.460000   1731.150000   588.350000
63.136145   42.121886   281.100000   1702.310000   587.330000
117.239514   -10.516321   1209.050000   666.660000   587.160000
90.331077   -34.500536   1639.790000   1108.820000   582.460000
49.183939   -15.399388   1288.550000   1879.980000   581.960000
61.204499   10.416021   895.690000   1594.660000   581.440000
128.671491   -6.836603   1151.940000   423.370000   581.270000
51.519263   -0.395422   1059.260000   1794.990000   580.950000
50.789331   16.704200   797.550000   1844.230000   580.310000
84.622218   -38.309374   1727.720000   1217.230000   579.750000
116.026806   30.492374   543.820000   631.750000   578.600000
110.315041   36.319684   418.860000   724.440000   576.490000
131.197950   -16.165732   1297.920000   331.920000   575.460000
110.914897   6.442070   953.170000   787.080000   571.720000
90.196373   -13.452895   1256.010000   1113.070000   571.150000
111.167836   40.542641   315.310000   681.680000   568.410000
80.854653   -11.751940   1229.640000   1256.900000   566.840000
95.304451   26.775226   618.460000   1029.070000   564.880000
73.236170   -9.234921   1191.050000   1377.310000   562.800000
90.848466   42.112361   276.790000   1102.210000   561.270000
124.180265   -29.021729   1525.890000   447.560000   560.710000
67.975961   -11.794475   1230.790000   1469.410000   558.010000
97.476519   29.401456   567.740000   989.240000   556.470000
80.092533   -39.450650   1755.800000   1307.970000   555.370000
49.254481   -25.917802   1468.140000   1932.050000   554.970000
116.854557   -14.693353   1274.810000   666.570000   554.330000
58.242786   -26.947666   1487.060000   1708.100000   553.400000
95.216615   -48.588262   2022.470000   995.270000   553.230000
85.337837   -31.664292   1579.400000   1197.050000   550.070000
98.124569   -0.631243   1060.180000   994.370000   548.060000
122.611065   37.261600   394.800000   427.740000   543.520000
70.375644   30.743888   543.890000   1473.060000   542.400000
71.238222   28.396129   590.060000   1448.400000   542.090000
77.716646   -8.837943   1184.790000   1304.850000   536.480000
130.690426   30.898313   533.280000   256.080000   530.640000
59.593712   -5.587458   1136.350000   1620.090000   528.330000
127.551161   -11.769373   1228.040000   441.080000   526.830000
91.324042   -18.569947   1338.840000   1094.930000   515.990000
137.832817   1.115880   1031.240000   165.960000   511.160000
54.693140   35.710807   440.460000   1862.720000   511.120000
116.327890   12.630332   857.320000   682.010000   506.700000
128.319182   23.497479   674.800000   376.860000   505.540000
118.973191   7.138637   942.010000   637.900000   489.080000
# File created at Mon Feb 14 14:45:19 2011 with find2thetachi.py
# From: UO2_A163_2_0028_LT_0.dat
# Calibration parameters (XMAS)
# dd     :   69.0026406103
# xcen     :   1051.15323829
# ycen     :   1120.85701432
# xbet     :   0.27391444432
# xgam     :   -0.188519512131
# pixelsize     :   0.08056640625