# wavelength[angstrom] transmittance
 3802.0  0.0047
 3806.0  0.0029
 3810.0  0.0009
 3814.0  0.0048
 3818.0  0.0256
 3822.0  0.0751
 3826.0  0.1597
 3830.0  0.2778
 3834.0  0.4195
 3838.0  0.5651
 3842.0  0.6897
 3846.0  0.7751
 3850.0  0.8196
 3854.0  0.8357
 3858.0  0.8394
 3862.0  0.8413
 3866.0  0.8423
 3870.0  0.8342
 3874.0  0.8046
 3878.0  0.7438
 3882.0  0.6502
 3886.0  0.5305
 3890.0  0.3966
 3895.0  0.2636
 3899.0  0.1492
 3903.0  0.0683
 3907.0  0.0238
 3911.0  0.0066
 3915.0  0.0032
 3919.0  0.0038
 3923.0  0.0041
 3927.0  0.0037
 3931.0  0.0031
 3935.0  0.0028
 3939.0  0.0027
 3943.0  0.0026
 3947.0  0.0025
 3951.0  0.0024
 3955.0  0.0022
 3960.0  0.0020
