2theta chi X Y I
79.229559   1.492392   1027.110000   1293.280000   70931.270
66.118205   -19.109706   1379.170000   1553.580000   51933.840
70.311750   -14.047092   1288.110000   1460.160000   22795.070
104.300469   7.457500   926.220000   872.060000   19489.690
102.894652   25.719926   595.460000   876.440000   19058.790
118.354466   -8.138721   1183.270000   598.920000   17182.880
62.189484   24.410079   626.120000   1661.280000   15825.390
58.576109   11.846050   856.140000   1702.520000   15486.200
82.543705   -33.395229   1672.670000   1258.620000   13318.810
83.816761   -25.332134   1497.400000   1224.700000   13145.990
91.632046   -7.579481   1176.090000   1086.190000   11799.930
82.599111   16.053477   780.270000   1242.530000   11662.160
82.287730   13.300523   828.680000   1246.060000   10727.930
120.074530   13.597459   819.910000   552.840000   10271.900
113.025958   10.528349   873.560000   706.970000   10010.520
56.982337   -1.951861   1085.800000   1725.830000   9107.770
108.246904   -29.347432   1579.390000   754.630000   8515.140
94.231044   -9.989242   1216.490000   1042.280000   8262.020
125.718199   -24.691956   1481.200000   364.840000   6598.440
81.060835   34.675745   399.870000   1297.190000   6505.450
82.320144   28.106538   548.250000   1260.320000   6137.870
84.008848   -20.130885   1396.710000   1217.560000   5781.180
92.032801   -29.018807   1573.490000   1073.130000   5481.590
73.945964   -8.866742   1199.060000   1387.530000   5182.440
118.771835   -17.890039   1352.760000   568.030000   5055.990
96.793758   31.738900   467.050000   984.600000   4950.230
82.756053   23.645804   638.870000   1246.590000   4761.410
95.695219   5.044061   967.150000   1019.900000   4673.940
93.264079   4.431253   977.500000   1060.310000   4649.480
99.361896   20.232928   702.520000   949.880000   4413.680
107.434730   35.199646   383.770000   754.580000   4400.610
97.976438   -13.893367   1283.340000   976.690000   4305.200
130.418696   19.781591   707.200000   261.110000   4170.570
111.067814   -5.563363   1140.930000   748.400000   4160.120
66.141033   20.488882   701.050000   1560.170000   4044.720
92.331753   -35.798030   1730.330000   1063.320000   3856.170
107.989287   8.663164   905.640000   804.810000   3693.430
116.929186   -0.402157   1055.140000   634.640000   3277.590
107.385489   20.141471   703.420000   801.020000   3232.590
98.060949   38.883600   289.690000   945.970000   3125.110
89.851994   -6.070815   1151.050000   1115.850000   3088.730
100.660226   -17.052412   1339.110000   926.870000   2830.160
118.351364   -23.518474   1458.760000   556.690000   2775.350
81.967975   11.398811   861.480000   1250.420000   2670.740
80.271170   37.537215   327.890000   1321.030000   2634.420
111.236914   24.373967   621.540000   713.500000   2612.620
129.687631   -13.573222   1274.860000   306.950000   2377.760
113.450579   -13.801810   1280.510000   691.440000   2278.070
123.134356   -0.933997   1063.250000   497.790000   2195.880
75.555463   -26.446239   1520.650000   1382.650000   2124.740
97.316906   -37.211128   1765.960000   958.470000   2077.070
109.793577   -32.976621   1660.860000   706.310000   2052.310
102.326632   -3.129564   1101.370000   907.290000   1952.150
61.128955   -1.374036   1075.860000   1633.060000   1878.930
91.301058   -24.171757   1473.720000   1088.400000   1877.760
80.874284   -39.181942   1819.620000   1305.460000   1746.380
96.631888   -31.456347   1626.900000   982.640000   1676.950
95.368995   26.700908   576.200000   1016.970000   1646.400
82.798515   20.372541   701.500000   1242.550000   1591.710
104.005243   -21.796043   1426.670000   858.780000   1576.400
66.020062   8.545217   911.320000   1538.140000   1466.190
117.456365   12.373454   841.450000   613.020000   1399.400
123.332192   -10.294543   1219.190000   482.300000   1361.220
123.064032   -29.832943   1588.650000   403.050000   1343.440
67.017193   29.421842   521.920000   1574.920000   1331.830
94.462704   14.272535   810.650000   1039.110000   1277.200
131.926684   3.917243   982.110000   264.380000   1253.580
119.999829   28.412844   537.370000   496.910000   1183.420
92.982074   34.869115   393.710000   1057.160000   1105.270
93.109230   40.499972   245.420000   1050.380000   1055.910
112.218090   -0.063408   1050.010000   728.620000   1019.630
115.409270   38.522656   296.950000   544.570000   943.570
105.059232   29.761996   510.170000   824.170000   887.260
83.626957   -13.980694   1285.920000   1221.220000   860.610
99.550204   -2.431591   1090.080000   954.930000   797.370
110.555132   -35.085663   1711.330000   678.470000   772.050
114.370639   -19.194605   1377.040000   659.840000   708.970
124.703837   16.103373   775.110000   434.930000   706.880
104.297480   17.193034   757.840000   863.720000   703.030
91.453015   4.053818   983.890000   1090.230000   655.210
131.878622   7.322234   925.430000   261.100000   646.940
95.916716   -11.616447   1244.110000   1013.220000   550.970
117.827185   -27.100996   1530.970000   552.130000   492.940
# File created at Fri Feb 21 17:44:09 2020 with IOLaueTools.py
# From: Ge0001.dat
# Calibration parameters
# dd     :   69.179
# xcen     :   1050.81
# ycen     :   1115.59
# xbet     :   0.104
# xgam     :   -0.273
# pixelsize     :   0.0734
# ypixelsize     :   0.0734